File: xrpostproc/pareto_picture/XRD_135gpa_pure_BaH12.txt
4.94906	0.804769
5.01571	1.69752
5.08236	0.973896
5.14902	3.16526
5.21567	4.01877
5.28232	3.45148
5.34898	4.03378
5.41563	8.07486
5.48229	7.87105
5.54894	6.52522
5.61559	6.75929
5.68225	8.80629
5.7489	7.35514
5.81556	4.84602
5.88221	4.01195
5.94886	6.00132
6.01552	5.11698
6.08217	4.81959
6.14883	6.11603
6.21548	5.37882
6.28213	3.87856
6.34879	5.08061
6.41544	8.41936
6.4821	7.59527
6.54875	5.75595
6.6154	3.32344
6.68206	7.7255
6.74871	5.2247
6.81537	4.84653
6.88202	1.8624
6.94867	4.80964
7.01533	3.64674
7.08198	2.68148
7.14864	3.20983
7.21529	4.6608
7.28194	1.83558
7.3486	0.39106
7.41525	-0.00321066
7.48191	4.51315
7.54856	2.76529
7.61521	2.28126
7.68187	1.85461
7.74852	2.4494
7.81517	2.27683
7.88183	1.04194
7.94848	1.55297
8.01514	-0.114141
8.08179	1.44081
8.14844	0.904474
8.2151	-0.0646342
8.28175	0.315659
8.34841	0.929959
8.41506	1.33301
8.48171	0.135447
8.54837	2.88411
8.61502	6.71842
8.68168	2.88411
8.74833	3.26292
8.81498	3.26292
8.88164	3.29705
8.94829	7.71868
9.01495	4.09974
9.0816	11.3839
9.14825	30.5202
9.21491	12.5306
9.28156	5.44453
9.34822	1.68962
9.41487	3.57337
9.48152	2.15048
9.54818	1.06354
9.61483	-0.512247
9.68149	-0.371875
9.74814	4.97604
9.81479	4.7981
9.88145	6.11855
9.9481	3.02612
10.0148	5.31673
10.0814	4.7981
10.1481	3.24719
10.2147	5.17265
10.2814	2.88736
10.348	2.98947
10.4147	0.5268
10.4813	1.9421
10.548	1.83701
10.6146	1.73268
10.6813	2.10521
10.7479	1.31226
10.8146	0.83038
10.8813	6.73123
10.9479	11.9489
11.0146	24.1744
11.0812	86.4695
11.1479	508.035
11.2145	634.775
11.2812	120.417
11.3478	40.4094
11.4145	17.8413
11.4811	9.10072
11.5478	6.83815
11.6144	10.7127
11.6811	2.94825
11.7478	2.03038
11.8144	3.11579
11.8811	2.84563
11.9477	4.67031
12.0144	3.48321
12.081	3.48321
12.1477	0.0172618
12.2143	1.42111
12.281	1.78613
12.3476	11.709
12.4143	2.4562
12.481	4.62181
12.5476	2.4562
12.6143	4.62181
12.6809	17.7449
12.7476	27.8086
12.8142	89.7566
12.8809	219.387
12.9475	487.142
13.0142	218.745
13.0808	24.762
13.1475	6.80261
13.2141	4.75026
13.2808	4.8279
13.3475	7.375597
13.4141	8.70888
13.48076	4.75963
13.5474	2.2445
13.6141	0.619292
13.6807	2.02681
13.7474	0.253393
13.814	0.319649
13.8807	1.51782
13.9473	3.36007
14.014	6.25274
14.0806	7.49456
14.1473	6.40989
14.214	2.87268
14.2806	4.01851
14.3473	10.3036
14.4139	20.246
14.4806	10.4706
14.5472	2.10426
14.6139	-0.00172952
14.6805	2.87235
14.7472	3.11843
14.8138	2.45249
14.8805	4.15507
14.9471	2.3034
15.0138	2.93992
15.0805	3.83051
15.1471	2.87169
15.2138	4.41643
15.2804	6.3388
15.3471	7.6379
15.4137	8.461
15.4804	11.3555
15.547	11.2302
15.6137	11.8201
15.6803	13.1389
15.747	15.3566
15.8136	17.7379
15.8803	19.8186
15.947	26.685
16.0136	31.5058
16.0803	24.8347
16.1469	16.6111
16.2136	11.1994
16.2802	12.0045
16.3469	11.8361
16.4135	11.0896
16.4802	10.6898
16.5468	9.05313
16.6135	10.4839
16.6801	10.3835
16.7468	11.6479
16.8135	12.3874
16.8801	12.9902
16.9468	13.2086
17.0134	11.0878
17.0801	11.8808
17.1467	12.2075
17.2134	13.294
17.28	13.7048
17.3467	13.5254
17.4133	10.3794
17.48	11.39
17.5467	11.8808
17.6133	13.2461
17.68	10.7313
17.7466	12.0122
17.8133	12.4185
17.8799	11.2829
17.9466	9.64975
18.0132	7.80533
18.0799	9.6797
18.1465	16.5725
18.2132	60.4221
18.2798	152.025
18.3465	71.9362
18.4132	28.2193
18.4798	15.2567
18.5465	8.7985
18.6131	6.70212
18.6798	6.31416
18.7464	7.98021
18.8131	5.99779
18.8797	2.98672
18.9464	2.3321
19.013	1.25735
19.0797	2.45146
19.1463	0.789261
19.213	-0.302927
19.2797	0.326637
19.3463	2.17082
19.413	8.6703
19.4796	9.20086
19.5463	6.27345
19.6129	5.12077
19.6796	3.63336
19.7462	2.21953
19.8129	0.304708
19.8795	1.73694
19.9462	0.710602
20.0128	1.87422
20.0795	2.86839
20.1462	2.26034
20.2128	2.64613
20.2795	0.691787
20.3461	1.91009
20.4128	10.9169
20.4794	2.97502
20.5461	3.52822
20.6127	1.31989
20.6794	-0.482443
20.746	0.323397
20.8127	-0.871798
20.8793	0.481051
20.946	3.09454
21.0127	2.61097
21.0793	-0.351979
21.146	1.97445
21.2126	7.58905
21.2793	18.3715
21.3459	123.985
21.4126	184.1
21.4792	223.807
21.5459	140.147
21.6125	50.201
21.6792	3.75805
21.7458	-2.65263
21.8125	1.54979
21.8569	3.51152