File: xrpostproc/generate_xrd/reference/1_-0.0027_0072576_Sr_50gpa_194.txt
13.27     24.32
15.26     22.43
15.31    100.00
20.27     15.30
23.08     21.03
26.62     20.57
26.71      3.39
27.79     24.00
27.82     17.94
30.80      2.88
30.91      4.26
33.66      3.20
35.52      7.97
35.59      2.64
36.45     14.55
38.84      7.74
38.93      3.84
40.55      3.31
41.15      4.71
41.21      1.56
42.79      8.18
43.56      5.11
46.94      0.65
47.17      1.92
47.70      2.77
47.76      1.84
49.00      0.84
49.22      0.82
49.87      3.15
49.89      4.72
51.77      2.76
51.84      1.37
52.94      2.55
53.64      3.65
54.83      0.56
54.98      3.34
55.04      0.28
55.65      1.60
57.21      1.45
57.40      1.91
57.47      0.48
59.20      0.86