File: xrpostproc/generate_xrd/reference/2_-0.001_0072592_Sr_50gpa_194.txt
13.10     24.73
15.22    100.00
15.47     21.27
20.32     14.95
22.78     21.48
26.37      3.47
26.81     19.79
27.51     18.26
27.65     23.96
30.71      4.28
31.23      2.70
33.99      3.04
35.12      2.72
35.46      7.88
36.01     14.93
38.58      3.90
39.00      7.49
40.01      3.42
41.31      1.52
41.61      4.45
42.57      8.20
43.14      5.21
46.53      1.98
47.62      0.61
47.69      1.82
47.96      2.67
48.55      0.85
49.24      4.86
49.33      3.22
49.61      0.79
51.27      1.40
51.61      2.74
53.41      2.43
53.73      3.57
54.28      0.29
54.52      3.39
54.91      1.65
55.25      0.54
56.79      0.49
57.11      1.92
57.97      1.36
58.87      0.86
59.61      0.41
59.84      1.22