File: xrpostproc/generate_xrd/reference/4_-0.0006_0072596_Sr_50gpa_194.txt
13.26     24.46
15.34    100.00
15.38     22.06
20.37     15.18
23.08     21.14
26.71      3.41
26.78     20.29
27.83     18.01
27.85     23.95
30.97      4.26
31.05      2.81
33.90      3.14
35.59      2.65
35.64      7.91
36.46     14.61
38.98      3.84
39.05      7.63
40.55      3.33
41.41      1.54
41.46      4.61
42.89      8.15
43.61      5.12
47.17      1.93
47.35      0.64
47.94      1.82
47.98      2.72
49.22      0.83
49.39      0.82
49.89      4.74
49.91      3.16
51.88      1.38
51.93      2.74
53.31      2.50
53.89      3.61
55.03      0.28
55.07      3.34
55.19      0.55
55.66      1.61
57.50      0.48
57.55      1.91
57.70      1.42
59.35      0.85