File: xrpostproc/powder_xrd_deep_screening/UH_50_powder.txt
7.818	31.8105
8.6728	71.4044
9.95501	95.7699
10.5961	28.934
11.1401	27.4112
12.3057	26.2267
14.1708	17.2589
15.0644	20.1354
16.5603	19.1201
17.3569	17.0897
18.0174	7.2758
19.5133	12.0135
20.1155	7.78342
20.5429	10.8291
21.8834	6.09137