File: xrpostproc/powder_xrd_deep_screening/UH_50_extended_convex_hull_POSCARS.txt
EA1092  3.845  3.842  3.530 90.29 89.59 64.34 Sym.group:    2
1.0000
    3.772579    -0.158607    -0.726683
    1.704633     3.373486    -0.688369
    0.703041     0.327495     3.444153
   H
  16
Direct
    0.435282     0.333320     0.508501
    0.274345     0.412578     0.646305
    0.051820     0.138013     0.977386
    0.211245     0.056777     0.838021
    0.663089     0.019334     0.140948
    0.156116     0.514806     0.133396
    0.331347     0.950149     0.348572
    0.820361     0.451106     0.348471
    0.932991     0.830171     0.508323
    0.775966     0.913089     0.649848
    0.552511     0.633990     0.979014
    0.710299     0.559548     0.837673
    0.587976     0.186966     0.013684
    0.093905     0.693381     0.022545
    0.391232     0.779530     0.471065
    0.901483     0.278214     0.468509
EA596   4.700  5.174  5.354 90.00 90.00 90.00 Sym.group:   63
1.0000
    4.692375    -0.173134     0.211613
    0.181521     5.166903     0.202268
   -0.248443    -0.200471     5.344742
   U
   8
Direct
    0.752496     0.621264     0.145772
    0.252270     0.871038     0.847836
    0.252122     0.121215     0.347895
    0.752318     0.371099     0.645786
    0.252309     0.371071     0.847862
    0.752109     0.121241     0.145743
    0.752278     0.871129     0.645769
    0.252478     0.621195     0.347796
EA972   3.743  3.746  5.473 89.97 89.97 60.05 Sym.group:  194
1.0000
    3.667387    -0.713276     0.219140
    2.468586     2.807147    -0.235967
   -0.198495     0.635428     5.432221
   U   H
   2   14
Direct
    0.792462     0.860948     0.458712
    0.125327     0.195229     0.958698
    0.457939     0.529216     0.958157
    0.459681     0.527150     0.458168
    0.097517     0.708594     0.129235
    0.277286     0.345731     0.289742
    0.278047     0.346885     0.628597
    0.094829     0.710548     0.789443
    0.277803     0.889977     0.628970
    0.278352     0.889951     0.288963
    0.821957     0.346852     0.288855
    0.641507     0.710758     0.127590
    0.639460     0.166734     0.129266
    0.639630     0.166619     0.788164
    0.639505     0.709494     0.788876
    0.823340     0.345439     0.627750
EA5626  3.588  3.580  7.331 86.18 93.76 88.98 Sym.group:   15
1.0000
    3.583724    -0.145209    -0.093235
    0.209181     3.573999     0.020665
   -0.272000     0.462526     7.311697
   U   H
   4   10
Direct
    0.939038     0.484211     0.048078
    0.277878     0.951515     0.242191
    0.375547     0.049107     0.742745
    0.842171     0.386379     0.547481
    0.099683     0.877824     0.503744
    0.643881     0.543530     0.797306
    0.117962     0.558086     0.786639
    0.769484     0.205081     0.286461
    0.783914     0.685727     0.296685
    0.447005     0.230689     0.003721
    0.433080     0.749451     0.993634
    0.336448     0.445362     0.395277
    0.880274     0.991065     0.894788
    0.574422     0.891341     0.493198
EA8459  3.479  3.312  3.311 94.46 89.99 89.99 Sym.group:   63
1.0000
    3.456287    -0.015141    -0.400326
   -0.020691     3.297240    -0.306348
    0.381978     0.049388     3.288918
   U   H
   2    2
Direct
    0.379442     0.785014     0.104094
    0.879518     0.153415     0.736337
    0.879357     0.572238     0.322925
    0.379588     0.368436     0.519554
EA3754  5.211  4.790  3.512 90.00 89.91 89.97 Sym.group:   57
1.0000
    5.209340    -0.112504     0.096284
    0.107489     4.788694    -0.069793
   -0.058470     0.052382     3.510655
   U   H
   4    8
Direct
    0.264446     0.189328     0.254211
    0.736150     0.309815     0.752913
    0.735382     0.689294     0.252937
    0.264882     0.809901     0.754211
    0.339905     0.395824     0.754080
    0.947778     0.997901     0.503664
    0.660746     0.896105     0.753028
    0.052574     0.499162     0.003572
    0.947675     0.000233     0.003903
    0.339298     0.603235     0.254059
    0.052840     0.501355     0.503049
    0.660766     0.103314     0.252951
EA5967  3.475  3.316  3.310 94.53 90.00 89.94 Sym.group:   63
1.0000
    3.468983    -0.031094    -0.202034
    0.007357     3.286403    -0.442512
    0.193877     0.179854     3.299642
   U   H
   2    2
Direct
    0.374558     0.786711     0.104082
    0.873988     0.156031     0.738404
    0.875032     0.575612     0.327878
    0.373527     0.366911     0.514522
EA7197  3.464  4.828  5.719 114.88 72.56 89.97 Sym.group:   72
1.0000
    3.410553    -0.172144    -0.579658
   -0.513666     2.830746    -3.877680
    2.620740     2.462698     4.446419
   U   H
   4    6
Direct
    0.164663     0.704303     0.246650
    0.664863     0.083202     0.247084
    0.412411     0.833541     0.748704
    0.911914     0.455042     0.748865
    0.953375     0.001529     0.663123
    0.623965     0.536194     0.331701
    0.123445     0.336616     0.332558
    0.453067     0.201942     0.663929
    0.039092     0.268377     0.997933
    0.537810     0.268978     0.997744
EA2962  2.872  2.862  2.883 89.93 90.26 90.25 Sym.group:    1
1.0000
    2.853903    -0.139631     0.287713
    0.161451     2.836391    -0.347161
   -0.282186     0.367868     2.845641
   H
   8
Direct
    0.882002     0.585095     0.033173
    0.383119     0.726864     0.706415
    0.257143     0.576737     0.540739
    0.758186     0.716697     0.213121
    0.249918     0.079493     0.203079
    0.388924     0.223554     0.043710
    0.889848     0.087373     0.708827
    0.749395     0.216708     0.538129
EA3806  2.861  2.898  2.840 89.97 90.34 89.81 Sym.group:  205
1.0000
    2.811339    -0.176825     0.501145
    0.290451     2.824990    -0.576632
   -0.466207     0.607763     2.734399
   H
   8
Direct
    0.822762     0.597251     0.000040
    0.176323     0.606697     0.498898
    0.332201     0.746937     0.647343
    0.685175     0.755866     0.146558
    0.185830     0.099155     0.147471
    0.323469     0.254743     0.998459
    0.830259     0.105026     0.647891
    0.678215     0.248586     0.497794
EA3807  2.901  2.847  2.881 90.23 90.31 89.71 Sym.group:    1
1.0000
    2.894812    -0.157891     0.101619
    0.164306     2.838980     0.136699
   -0.124227    -0.142690     2.874458
   H
   8
Direct
    0.050305     0.863328     0.096156
    0.055039     0.234288     0.603375
    0.374451     0.729633     0.596353
    0.382471     0.361847     0.103013
    0.546434     0.222514     0.964810
    0.879083     0.720495     0.971447
    0.555507     0.854912     0.470191
    0.874778     0.349917     0.463949
EA3723  3.760  3.767  5.331 90.07 90.02 119.91 Sym.group:  187
1.0000
    3.744055     0.341462    -0.064541
   -2.165027     3.079834     0.118842
    0.102673    -0.141910     5.328032
   U   H
   2   13
Direct
    0.129462     0.475725     0.903810
    0.796040     0.809011     0.403705
    0.645567     0.507903     0.736550
    0.809705     0.315353     0.249080
    0.289731     0.796398     0.248568
    0.289746     0.315751     0.558177
    0.807764     0.315191     0.558655
    0.098161     0.961286     0.071049
    0.644027     0.504098     0.071684
    0.288561     0.315453     0.249298
    0.462865     0.142240     0.902382
    0.643037     0.961927     0.735828
    0.100062     0.960927     0.736920
    0.644804     0.961465     0.070970
    0.287908     0.792159     0.559336
EA2726  2.889  2.888  2.803 89.77 89.45 90.31 Sym.group:   61
1.0000
    2.848625    -0.175050     0.449040
    0.130619     2.878710     0.192458
   -0.418438    -0.154904     2.766796
   H
   8
Direct
    0.517096     0.401408     0.027568
    0.875920     0.901148     0.022972
    0.376075     0.907063     0.381721
    0.022795     0.403541     0.378190
    0.880544     0.558466     0.525273
    0.382458     0.558401     0.876403
    0.525401     0.056554     0.527041
    0.022242     0.062372     0.883395
EA3648  3.642  3.644  3.644 60.09 60.10 60.12 Sym.group:  225
1.0000
    1.858974    -3.130961     0.088733
    3.641936     0.046744    -0.121691
    1.928549    -0.884293     2.962741
   U   H
   1    8
Direct
    0.990852     0.790049     0.820092
    0.892542     0.156484     0.186496
    0.089309     0.423700     0.453472
    0.624586     0.888911     0.452590
    0.357078     0.155624     0.186594
    0.626251     0.422843     0.916582
    0.358063     0.691123     0.186448
    0.356699     0.156888     0.722356
    0.624017     0.423866     0.453144
EA4169  2.917  2.794  2.881 89.91 89.95 90.21 Sym.group:   61
1.0000
    2.897433    -0.071966     0.330637
    0.098553     2.770067    -0.353171
   -0.312228     0.377534     2.839438
   H
   8
Direct
    0.156212     0.784300     0.361564
    0.006146     0.608166     0.476265
    0.498752     0.778997     0.865758
    0.663331     0.613442     0.972305
    0.162339     0.276955     0.977165
    0.999794     0.115437     0.860667
    0.656681     0.105783     0.367230
    0.505720     0.286636     0.470826
EA4413  2.918  2.778  2.900 89.91 90.53 90.57 Sym.group:   61
1.0000
    2.917466    -0.009267     0.031445
   -0.017094     2.772900    -0.160575
   -0.057420     0.172047     2.894506
   H
   8
Direct
    0.499461     0.877591     0.169232
    0.873706     0.711196     0.667502
    0.371480     0.375830     0.526526
    0.871243     0.375234     0.169338
    0.375499     0.705157     0.020587
    0.003163     0.212126     0.023072
    0.007556     0.876762     0.522102
    0.508890     0.207772     0.665453
EA3204  2.781  2.896  2.917 89.98 90.09 90.01 Sym.group:   61
1.0000
    2.725972    -0.174722     0.521594
    0.174368     2.890215     0.054683
   -0.553767    -0.019836     2.864103
   H
   8
Direct
    0.376733     0.513592     0.923891
    0.879080     0.841776     0.918148
    0.537348     0.842148     0.421121
    0.874608     0.342904     0.526020
    0.039096     0.511184     0.421457
    0.537773     0.340088     0.025242
    0.376926     0.012195     0.528474
    0.035927     0.011900     0.030626
EA2177  5.102  5.099  5.132 119.65 60.28 89.95 Sym.group:  121
1.0000
    2.772233    -2.032974     3.770394
   -3.058689     2.195749     3.438567
    0.758493    -5.073533     0.150101
   U   H
   4   11
Direct
    0.240468     0.318825     0.076335
    0.679137     0.757750     0.076089
    0.420139     0.578249     0.717014
    0.858754     0.139223     0.717842
    0.310848     0.142632     0.577774
    0.106586     0.435388     0.579381
    0.563373     0.891521     0.578270
    0.855292     0.686756     0.577321
    0.788867     0.462007     0.215460
    0.992178     0.755113     0.215340
    0.243172     0.005553     0.215577
    0.535936     0.210143     0.216412
    0.275480     0.722296     0.444899
    0.823175     0.174940     0.348855
    0.050390     0.947838     0.896952
EA6416  3.479  3.343  6.552 94.49 90.00 90.00 Sym.group:   11
1.0000
    3.472751     0.200107    -0.029397
   -0.190052     3.329022     0.237970
    0.111039    -0.972087     6.478869
   U   H
   4    4
Direct
    0.962467     0.096630     0.378705
    0.462418     0.714461     0.556714
    0.462712     0.714262     0.056579
    0.962764     0.096509     0.878759
    0.962281     0.522731     0.676424
    0.462423     0.288067     0.258755
    0.462902     0.291395     0.760618
    0.962759     0.522978     0.176459
EA4313  2.846  2.914  6.037 103.79 103.56 90.23 Sym.group:    9
1.0000
    2.828009     0.094134     0.301287
   -0.148680     2.885293     0.383759
   -1.910038    -2.252808     5.265539
   H
  16
Direct
    0.123743     0.619623     0.828993
    0.838193     0.159541     0.913127
    0.093243     0.423319     0.412869
    0.594329     0.974368     0.412377
    0.177242     0.029125     0.574220
    0.679618     0.520224     0.575884
    0.421839     0.331454     0.077588
    0.921647     0.740097     0.075281
    0.370110     0.870485     0.325305
    0.869916     0.438354     0.325017
    0.343397     0.749058     0.910560
    0.625601     0.199625     0.825149
    0.794237     0.863893     0.162879
    0.291307     0.276772     0.160814
    0.038232     0.066953     0.664733
    0.534843     0.600421     0.662298
EA8326  3.478  2.052  3.265 89.44 90.17 88.89 Sym.group:    1
1.0000
    3.431051     0.470606     0.324640
   -0.237021     2.038074    -0.022770
   -0.321574     0.031185     3.249161
   H
   8
Direct
    0.245175     0.523308     0.918684
    0.242132     0.031813     0.422502
    0.749323     0.030943     0.932014
    0.743074     0.479711     0.430651
    0.407151     0.991961     0.563365
    0.081545     0.513958     0.061691
    0.905478     0.553513     0.566586
    0.576122     0.014669     0.060757
EA820   2.838  2.888  2.907 90.52 90.06 89.96 Sym.group:   14
1.0000
    2.747023     0.423835    -0.573124
   -0.559528     2.756910    -0.653053
    0.464484     0.724096     2.776432
   H
   8
Direct
    0.631523     0.549232     0.209644
    0.803741     0.901078     0.825602
    0.630325     0.052182     0.714048
    0.803267     0.403118     0.330071
    0.127781     0.905390     0.328606
    0.302185     0.548946     0.707399
    0.305393     0.046775     0.211629
    0.133352     0.404772     0.833299
EA7402  3.784  3.784  5.199 90.06 90.00 119.93 Sym.group:  194
1.0000
   -1.846829     3.282001    -0.373472
   -1.931518    -3.253056     0.096429
   -0.370988     0.379983     5.171527
   U   H
   2   12
Direct
    0.002999     0.625617     0.064706
    0.669395     0.958770     0.564750
    0.986970     0.117132     0.912360
    0.511238     0.116611     0.913301
    0.161115     0.467277     0.412660
    0.987280     0.118327     0.217266
    0.164491     0.948697     0.411623
    0.509806     0.639646     0.217135
    0.161114     0.466711     0.716674
    0.682067     0.465224     0.717679
    0.509111     0.637444     0.911386
    0.511437     0.118176     0.217157
    0.688560     0.467930     0.412792
    0.161436     0.942901     0.717231
EA9012  2.870  3.501  3.515 80.12 66.10 65.85 Sym.group:    1
1.0000
    2.404857     0.356600     1.525800
    0.830901     3.347128     0.602420
   -0.523717     0.135503     3.473389
   H
  10
Direct
    0.535004     0.334601     0.636438
    0.090093     0.913570     0.911409
    0.352725     0.237724     0.635063
    0.704509     0.703726     0.471089
    0.546538     0.453082     0.054658
    0.756270     0.541450     0.004713
    0.994233     0.678700     0.392481
    0.396043     0.061772     0.185963
    0.094574     0.133682     0.274672
    0.006959     0.874902     0.753794
EA8448  3.437  3.435  6.322 89.38 90.47 90.21 Sym.group:    2
1.0000
    3.417968     0.231615    -0.280238
   -0.254796     3.423440    -0.122706
    0.442480     0.327253     6.297988
   U   H
   4    4
Direct
    0.834019     0.935460     0.767063
    0.832127     0.937422     0.267083
    0.322887     0.450147     0.606320
    0.320945     0.452066     0.106379
    0.817580     0.430715     0.936988
    0.820878     0.433874     0.436986
    0.334286     0.953645     0.436344
    0.337263     0.956765     0.936370
EA389   2.981  3.639  6.020 90.03 90.02 65.88 Sym.group:   63
1.0000
    2.977999     0.111929     0.075293
    1.355646     3.367995     0.244415
   -0.139977    -0.382482     6.006369
   U   H
   2   10
Direct
    0.454963     0.630652     0.607284
    0.824339     0.885246     0.107403
    0.749729     0.041369     0.459917
    0.122766     0.289486     0.107424
    0.749253     0.041103     0.754612
    0.275252     0.985724     0.332870
    0.003914     0.531025     0.382142
    0.274701     0.984797     0.882044
    0.529499     0.474938     0.254021
    0.156721     0.226241     0.608764
    0.529636     0.474095     0.959781
    0.004386     0.531441     0.832537
EA2162  3.718  3.650  5.491 90.07 91.04 60.74 Sym.group:    1
1.0000
    1.953770     3.161970     0.081497
   -1.770834     3.191409     0.017262
   -0.188577    -0.142368     5.486129
   U   H
   2   13
Direct
    0.004588     0.213439     0.293509
    0.326413     0.551193     0.791400
    0.303668     0.063549     0.966082
    0.985712     0.725027     0.482444
    0.486684     0.246252     0.124941
    0.498696     0.246486     0.468345
    0.840375     0.064186     0.959814
    0.678213     0.878134     0.776417
    0.020719     0.705417     0.120623
    0.669158     0.881056     0.279172
    0.369111     0.029230     0.607563
    0.495789     0.686352     0.467052
    0.923504     0.266656     0.667606
    0.840556     0.525753     0.960972
    0.486239     0.698274     0.125842
EA9210  3.456  3.144 10.283 90.05 90.01 89.71 Sym.group:   11
1.0000
    3.455453    -0.020758     0.049196
    0.036305     3.142226    -0.105276
   -0.146260     0.337484    10.2766
   U   H
   6    6
Direct
    0.501230     0.417158     0.333589
    0.500819     0.416980     0.666820
    0.005907     0.095911     0.166559
    0.005709     0.095738     0.833260
    0.500780     0.417569     0.000210
    0.005966     0.095266     0.499900
    0.509642     0.762098     0.167188
    0.509408     0.762093     0.833603
    0.997709     0.751012     0.332848
    0.996974     0.750625     0.666484
    0.509762     0.761546     0.500501
    0.996921     0.751383     0.999716
EA2358  3.443  6.858  3.164 91.16 89.00 90.50 Sym.group:    1
1.0000
    3.435476     0.187892    -0.135077
   -0.439283     6.843049    -0.130808
    0.178944     0.007648     3.158991
   U   H
[...]
    0.956861     0.383245     0.119773
    0.203047     0.130780     0.618992
    0.381144     0.903134     0.375012
    0.927804     0.866786     0.111851
    0.456963     0.877911     0.115198
    0.878881     0.906615     0.368597
    0.125325     0.655507     0.869100
    0.282599     0.069852     0.215416
EA7140  4.625  3.415  4.636 89.93 95.64 89.93 Sym.group:   38
1.0000
    4.617694    -0.146312    -0.206534
    0.107882     3.412102    -0.098641
   -0.244833     0.147110     4.627659
   U   H
   4    3
Direct
    0.022151     0.070157     0.906250
    0.618234     0.571844     0.002625
    0.116396     0.571751     0.504615
    0.545093     0.070494     0.429168
    0.961592     0.072600     0.322812
    0.439738     0.072776     0.843224
    0.199807     0.568402     0.087805
EA9293  3.455  3.372  6.027 90.46 89.99 90.02 Sym.group:  164
1.0000
    3.447511    -0.193654    -0.130256
    0.182167     3.364067    -0.146718
    0.240285     0.201379     6.018898
   U   H
   4    2
Direct
    0.189196     0.956477     0.426814
    0.189420     0.417812     0.760171
    0.689588     0.955637     0.926697
    0.689806     0.417454     0.259989
    0.191371     0.686112     0.093951
    0.687610     0.687481     0.592965
EA2631  3.613  3.614  6.164 105.59 88.19 60.87 Sym.group:    8
1.0000
    3.584959    -0.436699    -0.090055
    2.119542     2.910497    -0.312286
    0.159246    -1.532580     5.968595
   U   H
   2   14
Direct
    0.047969     0.496773     0.237435
    0.531100     0.474397     0.733013
    0.499962     0.123054     0.409575
    0.444538     0.107102     0.921248
    0.205988     0.114302     0.700057
    0.953417     0.119623     0.406401
    0.633177     0.355526     0.053072
    0.086079     0.900683     0.052050
    0.982685     0.559143     0.918597
    0.598066     0.879360     0.068760
    0.087679     0.385648     0.554128
    0.499875     0.575219     0.407187
    0.088491     0.851709     0.553397
    0.621316     0.852210     0.554585
    0.863258     0.871228     0.796764
    0.369849     0.855326     0.274001
EA118   4.886  5.686  4.949 113.52 119.45 90.11 Sym.group:    1
1.0000
    4.801479    -0.894417     0.119520
    0.995780     5.524962     0.904340
   -2.944278    -2.058741     3.403522
   U   H
   5    9
Direct
    0.888505     0.875128     0.458862
    0.689796     0.296372     0.996657
    0.230858     0.065776     0.103092
    0.467644     0.695560     0.535568
    0.104162     0.503330     0.889492
    0.605459     0.961251     0.041595
    0.366608     0.363231     0.586330
    0.063745     0.545726     0.492233
    0.679968     0.173268     0.549267
    0.303018     0.032184     0.521103
    0.663357     0.388970     0.419409
    0.880060     0.794713     0.013254
    0.528438     0.639621     0.950303
    0.984415     0.199103     0.395942
EA9423  4.660  3.415  4.601 90.01 84.35 89.99 Sym.group:    6
1.0000
    4.639328    -0.011658     0.440875
   -0.005905     3.411050     0.157041
    0.018051    -0.212073     4.596087
   U   H
   4    3
Direct
    0.383355     0.542015     0.199475
    0.281811     0.041812     0.792362
    0.859405     0.541895     0.723853
    0.780261     0.041829     0.290545
    0.449932     0.541680     0.618344
    0.969341     0.541696     0.144726
    0.193673     0.042146     0.371053
EA658   3.512  3.711  5.905 73.26 106.77 89.62 Sym.group:    8
1.0000
    3.510826    -0.029580    -0.076381
    0.058792     3.707898     0.143176
   -1.572322     1.514915     5.486374
   U   H
   3    8
Direct
    0.294535     0.840943     0.636587
    0.974309     0.012545     0.982244
    0.617790     0.591868     0.276430
    0.217250     0.421183     0.479365
    0.204817     0.517926     0.957641
    0.116300     0.236148     0.273795
    0.711806     0.037308     0.469312
    0.712810     0.521983     0.955021
    0.809041     0.506546     0.661599
    0.549336     0.155869     0.133638
    0.384548     0.262852     0.797855
EA6595  3.485  3.592  6.467 78.53 74.42 89.77 Sym.group:    8
1.0000
    3.423167    -0.489608     0.432799
    0.471113     3.539069     0.391665
    1.029392     0.463719     6.368031
   U   H
   3   10
Direct
    0.315943     0.099328     0.846245
    0.716567     0.410095     0.041709
    0.018420     0.737726     0.440596
    0.172269     0.661235     0.126809
    0.565158     0.522054     0.347345
    0.468245     0.964215     0.539729
    0.621851     0.644311     0.746952
    0.853121     0.271248     0.332209
    0.106828     0.646336     0.748532
    0.462414     0.452858     0.555722
    0.297277     0.268366     0.334949
    0.621361     0.882188     0.227173
    0.920418     0.157688     0.633875
EA5520  3.685  3.489  7.102 89.86 85.89 90.01 Sym.group:    6
1.0000
    3.672339    -0.306260     0.028839
    0.289738     3.476007    -0.096627
    0.469298     0.175068     7.084554
   U   H
   4    9
Direct
    0.516241     0.051509     0.518643
    0.705249     0.049386     0.034781
    0.192593     0.552918     0.336842
    0.037101     0.550707     0.815216
    0.799301     0.551428     0.565509
    0.374908     0.549625     0.047913
    0.201864     0.055488     0.169085
    0.720243     0.548157     0.197821
    0.227853     0.049669     0.923002
    0.545672     0.802110     0.779944
    0.889249     0.053152     0.298760
    0.544974     0.299088     0.779282
    0.009285     0.051925     0.656385
EA4572  3.487  7.002  3.706 95.41 84.54 94.93 Sym.group:    1
1.0000
    3.471753    -0.299654    -0.137222
   -0.031942     6.964079    -0.728114
    0.502096     0.034801     3.671257
   U   H
   4    9
Direct
    0.583246     0.678891     0.179523
    0.577885     0.195537     0.141721
    0.985959     0.949922     0.784734
    0.051414     0.465022     0.830981
    0.111177     0.837725     0.251170
    0.044073     0.670922     0.490190
    0.050382     0.069988     0.305387
    0.101562     0.341065     0.305095
    0.300649     0.211281     0.661606
    0.801177     0.207625     0.620226
    0.575591     0.447318     0.501941
    0.513915     0.957487     0.455849
    0.424754     0.769033     0.717819
EA8046  3.440  4.895  4.824 91.06 88.66 91.73 Sym.group:    1
1.0000
    3.430303     0.172704     0.199561
   -0.387437     4.878068    -0.112461
   -0.167347     0.008150     4.820918
   U   H
   4    6
Direct
    0.763173     0.310865     0.274920
    0.308507     0.889213     0.370631
    0.722675     0.843918     0.799082
    0.285169     0.398340     0.902615
    0.824954     0.719715     0.195924
    0.024593     0.566540     0.561214
    0.509493     0.548845     0.546424
    0.211100     0.989840     0.971292
    0.787239     0.254767     0.700722
    0.250806     0.276078     0.501771
EA259   3.662  5.106  3.374 84.67 89.99 89.98 Sym.group:    6
1.0000
    3.600225     0.320155    -0.588794
   -0.474075     5.082349    -0.145345
    0.500639     0.456293     3.305719
   U   H
   2   11
Direct
    0.447492     0.460080     0.943251
    0.947543     0.970575     0.518139
    0.194005     0.821318     0.041010
    0.728236     0.337209     0.465972
    0.195827     0.618768     0.421252
    0.179998     0.331658     0.465868
    0.692149     0.622622     0.420670
    0.946670     0.591605     0.824176
    0.448250     0.097944     0.748676
    0.699646     0.821262     0.041749
    0.447550     0.073864     0.232153
    0.946751     0.226965     0.983480
    0.447227     0.830226     0.650595
EA2879  3.711  6.011  3.725 96.94 90.54 107.56 Sym.group:    8
1.0000
    3.606447    -0.296860     0.822043
   -1.335294     5.856436    -0.214985
   -0.895185    -0.534921     3.576385
   U   H
   3   11
Direct
    0.123953     0.377072     0.902362
    0.454261     0.041877     0.265362
    0.791034     0.713328     0.562527
    0.645979     0.413823     0.180589
    0.038277     0.212665     0.372094
    0.542303     0.212537     0.825507
    0.616171     0.369851     0.610562
    0.892752     0.920014     0.113269
    0.205226     0.541216     0.430058
    0.043114     0.697748     0.070384
    0.735214     0.036901     0.757432
    0.524182     0.698036     0.065439
    0.346304     0.823052     0.716138
    0.169962     0.036911     0.755216
EA7502  3.411  3.339  3.948 100.04 89.65 90.35 Sym.group:   11
1.0000
    3.409887    -0.091764    -0.042634
    0.063797     3.313028    -0.407683
    0.067452    -0.209909     3.941430
   U   H
   2    4
Direct
    0.173031     0.909504     0.744825
    0.672615     0.493505     0.376192
    0.674198     0.289409     0.838684
    0.171266     0.113350     0.282292
    0.174360     0.481899     0.060969
    0.671267     0.921018     0.059825